USGS Digital Spectral Library splib06a
Clark and others 2007, USGS, Data Series 231.

For further information on spectrsocopy, see: http://speclab.cr.usgs.gov

ASCII Spectral Data file contents:
line 15 title
line 16 history
line 17 to end:  3-columns of data:
     wavelength    reflectance    standard deviation

(standard deviation of 0.000000 means not measured)
(      -1.23e34  indicates a deleted number)
----------------------------------------------------
Clinoptilolite GDS152 Zeolit W1R1Bb AREF
copy of splib05a r 2067                                     
       0.205100      -1.23e34        0.005516
       0.213100       0.055675       0.001183
       0.221100       0.059413       0.000994
       0.229100       0.060531       0.000906
       0.236100       0.060579       0.000850
       0.242100       0.059692       0.000713
       0.248100       0.058797       0.000487
       0.253600       0.057984       0.000556
       0.258600       0.057975       0.000471
       0.263600       0.058127       0.000618
       0.268600       0.059549       0.000563
       0.273100       0.061909       0.000556
       0.277100       0.064617       0.000509
       0.281100       0.067556       0.000750
       0.285100       0.071228       0.000618
       0.289100       0.073843       0.000530
       0.293100       0.079911       0.000663
       0.297100       0.084866       0.000532
       0.301100       0.091727       0.000710
       0.305100       0.098037       0.000462
       0.309100       0.106150       0.000438
       0.313100       0.114584       0.000923
       0.317100       0.124414       0.000621
       0.321100       0.133499       0.000582
       0.325100       0.143959       0.000496
       0.329100       0.154548       0.000466
       0.333100       0.165582       0.000450
       0.337100       0.177466       0.000455
       0.341100       0.191027       0.000518
       0.345100       0.205885       0.000408
       0.349100       0.222224       0.000404
       0.353100       0.240811       0.000456
       0.357100       0.257825       0.000483
       0.360600       0.271447       0.000507
       0.363600       0.279136       0.000495
       0.366600       0.284059       0.000466
       0.369600       0.288454       0.000461
       0.372600       0.296816       0.000454
       0.375600       0.306888       0.000438
       0.378600       0.319398       0.000571
       0.381100       0.329588       0.000498
       0.383100       0.336966       0.000540
       0.385100       0.344967       0.000639
       0.387100       0.353629       0.000488
       0.389100       0.362074       0.000673
       0.391100       0.371052       0.000439
       0.393100       0.379807       0.000489
       0.395100       0.388254       0.000456
       0.397100       0.395452       0.000642
       0.399100       0.403533       0.000595
       0.401100       0.411341       0.000468
       0.403100       0.417764       0.000596
       0.405100       0.424217       0.000614
       0.407100       0.430361       0.000570
       0.409100       0.435667       0.000470
       0.411100       0.442220       0.000489
       0.412800       0.446357       0.000675
       0.415800       0.453988       0.000492
       0.418800       0.461055       0.000504
       0.421800       0.467444       0.000473
       0.424800       0.472974       0.000500
       0.427800       0.478885       0.000609
       0.430800       0.483810       0.000511
       0.433800       0.489094       0.000613
       0.436800       0.494325       0.000525
       0.439800       0.498451       0.000464
       0.442800       0.502051       0.000457
       0.445800       0.505337       0.000748
       0.448800       0.511523       0.000983
       0.451300       0.520153       0.000663
       0.453300       0.526710       0.000652
       0.455300       0.535189       0.000911
       0.457300       0.543959       0.000669
       0.459300       0.552039       0.000992
       0.461300       0.559640       0.000864
       0.463300       0.565937       0.000610
       0.465300       0.571228       0.000874
       0.467300       0.575041       0.000680
       0.469300       0.580621       0.000615
       0.471300       0.583946       0.000602
       0.473300       0.588229       0.000820
       0.475300       0.590993       0.000747
       0.477300       0.595576       0.000642
       0.479300       0.598725       0.000607
       0.481300       0.601945       0.000833
       0.483300       0.606625       0.000602
       0.485300       0.610172       0.000607
       0.487300       0.613398       0.000744
       0.489300       0.617911       0.000808
       0.491300       0.621181       0.000693
       0.493300       0.626741       0.000645
       0.495300       0.629962       0.000691
       0.497300       0.634706       0.000846
       0.499300       0.639705       0.000627
       0.501300       0.644172       0.000639
       0.503300       0.649297       0.000673
       0.505300       0.653802       0.000666
       0.507300       0.658695       0.000618
       0.509300       0.662825       0.000673
       0.511300       0.667407       0.000605
       0.513300       0.672230       0.000908
       0.515300       0.676102       0.000723
       0.517300       0.681714       0.000714
       0.519300       0.683975       0.000471
       0.521300       0.688654       0.000487
       0.523300       0.692313       0.000476
       0.525300       0.696555       0.000443
       0.527300       0.700074       0.000604
       0.529300       0.704288       0.000596
       0.531300       0.707934       0.000479
       0.533300       0.711073       0.000518
       0.535300       0.715348       0.000542
       0.537300       0.718366       0.000510
       0.539300       0.720500       0.000491
       0.541300       0.723465       0.000508
       0.543300       0.725723       0.000590
       0.545300       0.726995       0.001000
       0.547300       0.729099       0.000817
       0.549300       0.730583       0.000916
       0.551300       0.734030       0.000748
       0.553300       0.736236       0.000714
       0.555300       0.737395       0.000944
       0.557300       0.740387       0.000711
       0.559300       0.743805       0.000768
       0.561300       0.744754       0.000675
       0.563300       0.746128       0.000682
       0.565300       0.750418       0.000616
       0.567300       0.751687       0.000662
       0.569300       0.752645       0.000579
       0.571300       0.755846       0.000488
       0.573300       0.758113       0.000503
       0.575300       0.760547       0.000579
       0.577300       0.761600       0.000551
       0.579300       0.764420       0.000660
       0.581300       0.766194       0.000493
       0.583300       0.768436       0.000535
       0.585300       0.769689       0.000575
       0.587300       0.771050       0.000572
       0.589300       0.772841       0.000616
       0.591300       0.774268       0.000678
       0.593300       0.775844       0.000509
       0.595300       0.777940       0.000543
       0.597300       0.777283       0.000575
       0.599300       0.779316       0.000972
       0.601100       0.780890       0.000654
       0.602700       0.781126       0.000555
       0.604300       0.782130       0.000662
       0.605900       0.784416       0.000470
       0.607500       0.784998       0.000546
       0.609100       0.785073       0.000979
       0.610700       0.788215       0.000707
       0.612300       0.787572       0.000734
       0.613900       0.788237       0.000808
       0.615500       0.791088       0.000747
       0.617100       0.791171       0.000634
       0.618700       0.791588       0.000753
       0.620300       0.792028       0.000886
       0.621900       0.793052       0.000833
       0.623500       0.794697       0.000670
       0.625100       0.794713       0.000718
       0.626700       0.796920       0.000670
       0.628300       0.796915       0.000766
       0.629900       0.797740       0.000826
       0.631700       0.799049       0.000618
       0.633700       0.800599       0.000623
       0.635700       0.801803       0.000598
       0.637700       0.802146       0.000852
       0.639700       0.803098       0.000657
       0.641700       0.804808       0.000495
       0.643700       0.806432       0.000554
       0.645700       0.807443       0.000488
       0.647700       0.807705       0.000592
       0.649700       0.809716       0.000593
       0.651700       0.810735       0.000501
       0.653700       0.812815       0.000504
       0.655700       0.813177       0.000484
       0.657700       0.814706       0.000543
       0.659700       0.816192       0.000513
       0.661700       0.817305       0.000686
       0.663700       0.818425       0.000527
       0.665700       0.820186       0.000972
       0.667700       0.820986       0.000508
       0.670200       0.821924       0.000480
       0.673200       0.824000       0.000484
       0.676200       0.825924       0.000498
       0.679200       0.828107       0.000510
       0.682200       0.829839       0.000537
       0.685200       0.831299       0.000560
       0.688200       0.833742       0.000673
       0.691200       0.836565       0.000578
       0.694200       0.838204       0.000607
       0.697200       0.839205       0.000588
       0.700200       0.842926       0.000483
       0.702000       0.843645       0.000623
       0.704000       0.844749       0.000644
       0.706000       0.845275       0.000527
       0.708000       0.846514       0.000546
       0.710000       0.847665       0.000625
       0.712000       0.849249       0.000512
       0.714000       0.849762       0.000720
       0.716000       0.852209       0.000527
       0.718000       0.852584       0.000505
       0.720000       0.852242       0.000756
       0.722000       0.854557       0.000608
       0.724000       0.854437       0.000617
       0.726000       0.856195       0.000604
       0.728000       0.856332       0.000639
       0.730000       0.857368       0.000598
       0.732000       0.858220       0.000643
       0.734000       0.859004       0.000658
       0.736000       0.859608       0.000729
       0.738000       0.859514       0.000666
       0.740000       0.860099       0.000666
       0.742000       0.860329       0.000712
       0.744000       0.861242       0.000984
       0.746000       0.861576       0.000819
       0.748000       0.862955       0.000508
       0.750500       0.862729       0.000542
       0.753500       0.863990       0.000723
       0.756500       0.864899       0.000550
       0.759500       0.864119       0.000776
       0.762500       0.865573       0.000650
       0.765500       0.865009       0.000583
       0.768500       0.865447       0.000873
       0.771500       0.866528       0.000649
       0.774500       0.866601       0.000644
       0.777500       0.866877       0.000532
       0.781000       0.865840       0.000491
       0.785000       0.866343       0.000763
       0.789000       0.866876       0.000564
       0.793000       0.865920       0.000578
       0.797000       0.865872       0.000564
       0.801500       0.865007       0.000524
       0.806500       0.864853       0.000574
       0.811500       0.862953       0.000778
       0.816500       0.862356       0.000775
       0.822000       0.861080       0.000654
       0.828000       0.860972       0.000736
       0.835000       0.858330       0.000687
       0.843000       0.857278       0.000646
       0.851000       0.857835       0.001053
       0.859000       0.856875       0.001045
       0.871000       0.852011       0.000847
       0.883000       0.852518       0.000819
       0.894000       0.851642       0.000792
       0.904000       0.849463       0.000827
       0.914000       0.846321       0.000687
       0.924000       0.846298       0.000753
       0.933000       0.845355       0.000646
       0.941000       0.844242       0.000598
       0.949000       0.840672       0.000578
       0.957000       0.838205       0.000639
       0.964000       0.836993       0.000622
       0.970000       0.838383       0.000621
       0.976000       0.836809       0.000735
       0.982000       0.840934       0.000591
       0.988000       0.842744       0.000721
       0.994000       0.844349       0.000687
       1.000000       0.848680       0.000660
       1.006000       0.849142       0.000613
       1.012000       0.848742       0.000696
       1.018000       0.850616       0.001033
       1.023500       0.853714       0.000811
       1.028500       0.856033       0.000688
       1.033500       0.857492       0.000651
       1.038500       0.857172       0.000659
       1.043500       0.858281       0.000667
       1.048500       0.860035       0.000634
       1.053500       0.860776       0.000706
       1.058500       0.861891       0.000760
       1.063500       0.863387       0.000775
       1.068500       0.864323       0.000646
       1.073500       0.865090       0.000634
       1.078500       0.865309       0.000655
       1.083500       0.866813       0.000726
       1.088500       0.868213       0.000816
       1.093500       0.869154       0.000641
       1.098500       0.869588       0.000841
       1.103500       0.870335       0.000622
       1.108500       0.870526       0.000617
       1.113500       0.871456       0.000656
       1.118500       0.871904       0.000599
       1.123500       0.872068       0.000635
       1.128500       0.870361       0.000718
       1.133500       0.871347       0.000622
       1.138500       0.867936       0.000701
       1.143500       0.862799       0.000615
       1.148500       0.855282       0.000725
       1.153500       0.849354       0.000714
       1.158500       0.845070       0.000600
       1.163500       0.847354       0.000724
       1.168500       0.854340       0.000610
       1.173500       0.857166       0.000704
       1.178500       0.860155       0.000799
       1.183500       0.863098       0.000910
       1.188500       0.865740       0.000805
       1.193500       0.867969       0.000687
       1.198500       0.867989       0.000670
       1.203500       0.869735       0.000661
       1.208500       0.871057       0.000665
       1.213500       0.872379       0.000623
       1.218500       0.875082       0.000607
       1.223500       0.874928       0.000591
       1.228500       0.875977       0.000667
       1.233500       0.876682       0.000636
       1.238500       0.876688       0.000633
       1.243500       0.879922       0.000591
       1.248500       0.880587       0.000678
       1.253500       0.879470       0.000581
       1.258500       0.880665       0.000605
       1.263500       0.881393       0.000703
       1.268500       0.883339       0.000680
       1.273500       0.881144       0.000637
       1.278500       0.881021       0.000594
       1.283500       0.880169       0.000604
       1.288500       0.878607       0.000607
       1.293500       0.877008       0.000582
       1.298500       0.876308       0.000620
       1.303500       0.873746       0.000605
       1.308500       0.871760       0.000557
       1.313500       0.869094       0.000586
       1.318500       0.863700       0.000738
       1.323500       0.860158       0.000670
       1.328500       0.852674       0.000653
       1.333500       0.847225       0.000560
       1.338500       0.843069       0.000777
       1.343500       0.836866       0.000672
       1.348500       0.833225       0.000593
       1.353500       0.829890       0.000767
       1.358500       0.822696       0.000949
       1.363500       0.819395       0.000710
       1.368500       0.812653       0.000863
       1.373500       0.802770       0.000810
       1.378500       0.790282       0.000759
       1.383500       0.777306       0.000772
       1.388500       0.754946       0.000873
       1.393500       0.730463       0.000834
       1.398500       0.700252       0.000838
       1.403500       0.665446       0.000873
       1.408500       0.639456       0.000842
       1.413500       0.620723       0.000682
       1.418500       0.614543       0.000724
       1.423500       0.618322       0.000657
       1.428500       0.629314       0.000686
       1.433500       0.641792       0.000681
       1.438500       0.656117       0.000613
       1.443500       0.672857       0.000795
       1.448500       0.687176       0.000770
       1.453500       0.694758       0.000852
       1.458500       0.697725       0.000997
       1.463500       0.697267       0.000807
       1.468500       0.702819       0.000627
       1.473500       0.712671       0.000752
       1.478500       0.724155       0.000935
       1.483500       0.736738       0.000793
       1.488500       0.747790       0.000885
       1.493500       0.756782       0.000764
       1.498500       0.764952       0.000801
       1.503500       0.771102       0.000865
       1.508500       0.777865       0.000904
       1.513500       0.780377       0.000852
       1.518500       0.786149       0.000941
       1.523500       0.792281       0.000878
       1.528500       0.795581       0.000772
       1.534000       0.797304       0.000788
       1.540000       0.800374       0.000717
       1.546000       0.803509       0.000739
       1.552000       0.804507       0.000766
       1.558000       0.810848       0.000859
       1.564000       0.812691       0.000598
       1.570500       0.812131       0.000652
       1.577500       0.814739       0.000570
       1.584500       0.816408       0.000592
       1.591500       0.818988       0.000584
       1.598500       0.820305       0.000540
       1.605500       0.821557       0.000606
       1.612500       0.823870       0.000595
       1.619500       0.823490       0.000636
       1.626500       0.825961       0.000632
       1.633500       0.827221       0.000575
       1.640500       0.828603       0.000643
       1.647500       0.829503       0.000607
       1.654500       0.830073       0.000842
       1.661500       0.831190       0.000852
       1.668500       0.830106       0.000710
       1.676000       0.830166       0.000665
       1.684000       0.828989       0.000907
       1.692000       0.829843       0.001030
       1.700000       0.825482       0.001025
       1.708000       0.824534       0.001029
       1.716000       0.821057       0.000851
       1.724000       0.816318       0.000864
       1.732000       0.811494       0.000854
       1.740000       0.809405       0.001041
       1.748000       0.801845       0.001025
       1.756000       0.795422       0.001038
       1.764000       0.791810       0.001042
       1.772000       0.784577       0.000995
       1.780000       0.778109       0.001025
       1.788000       0.779077       0.000923
       1.796000       0.773279       0.000772
       1.805000       0.766912       0.000787
       1.815000       0.763857       0.000715
       1.825000       0.761402       0.000904
       1.835000       0.759497       0.000713
       1.845000       0.751336       0.000847
       1.855000       0.737552       0.000773
       1.865000       0.711523       0.001033
       1.875000       0.659856       0.000924
       1.885000       0.570927       0.000729
       1.895000       0.446531       0.000698
       1.905000       0.354220       0.000855
       1.915000       0.339731       0.000964
       1.925000       0.380020       0.000931
       1.935000       0.425613       0.000694
       1.945000       0.457532       0.000993
       1.955000       0.479386       0.000897
       1.965000       0.496167       0.000883
       1.975000       0.515749       0.001015
       1.985000       0.535748       0.000849
       1.995000       0.556820       0.000964
       2.005000       0.580021       0.001019
       2.015000       0.599814       0.001017
       2.025000       0.624483       0.001015
       2.035000       0.635684       0.001015
       2.045000       0.651214       0.000998
       2.055000       0.655703       0.000966
       2.065000       0.662914       0.001011
       2.075000       0.665540       0.001013
       2.085000       0.667213       0.001010
       2.095000       0.672708       0.001008
       2.105000       0.679483       0.001004
       2.115000       0.683210       0.001010
       2.125000       0.690504       0.001009
       2.135000       0.695695       0.001012
       2.145000       0.697186       0.001003
       2.155000       0.700422       0.001014
       2.165000       0.698064       0.001002
       2.175000       0.696725       0.001016
       2.185000       0.690597       0.001021
       2.195000       0.687910       0.001023
       2.205000       0.686357       0.001026
       2.215000       0.683057       0.001022
       2.225000       0.681483       0.001024
       2.235000       0.679588       0.001023
       2.245000       0.673044       0.001042
       2.255000       0.669551       0.001044
       2.265000       0.662990       0.001105
       2.275000       0.653498       0.001281
       2.285000       0.640602       0.001968
       2.295000       0.622447       0.002489
       2.305000       0.612518       0.002362
       2.315000       0.612405       0.001637
       2.325000       0.606019       0.001065
       2.335000       0.594222       0.001004
       2.345000       0.577125       0.000996
       2.355000       0.560450       0.000998
       2.365000       0.542728       0.000989
       2.375000       0.523761       0.000989
       2.386000       0.508063       0.000986
       2.400000       0.484707       0.000916
       2.418000       0.460357       0.000631
       2.440000       0.428148       0.000795
       2.466000       0.393220       0.000662
       2.496000       0.359062       0.000868
       2.528000       0.334058       0.000946
       2.560000       0.319712       0.000937
       2.592000       0.310272       0.000917
       2.624000       0.292597       0.000904
       2.656000       0.255922       0.001114
       2.688000       0.161956       0.002321
       2.720000       0.060577       0.005124
       2.752000       0.012780       0.005714
       2.784000       0.012526       0.004940
       2.816000       0.006012       0.004581
       2.848000       0.017234       0.004289
       2.880000       0.004447       0.004315
       2.912000       0.007383       0.004719
       2.944000       0.017171       0.005133
       2.976000       0.010829       0.007693
